#
# Phonon bands from phonopy-FHI-aims!
#
# Reciprocal lattice vector   -1.102507    1.102507    1.102507 
# Reciprocal lattice vector    1.102507   -1.102507    1.102507 
# Reciprocal lattice vector    1.102507    1.102507   -1.102507 
#
# Start point for band 00, Gamma = (  0.00000,  0.00000,  0.00000) will be at real distance =     0.00000 
#   End point for band 00, Delta = (  0.00000,  0.25000,  0.25000) will be at real distance =     0.35355 
#
# Start point for band 01, Delta = (  0.00000,  0.25000,  0.25000) will be at real distance =     0.35355 
#   End point for band 01,     X = (  0.00000,  0.50000,  0.50000) will be at real distance =     0.70711 
#
# Start point for band 02,     X = (  0.00000,  0.50000,  0.50000) will be at real distance =     0.70711 
#   End point for band 02,     W = (  0.25000,  0.50000,  0.75000) will be at real distance =     1.06066 
#
# Start point for band 03,     W = (  0.25000,  0.50000,  0.75000) will be at real distance =     1.06066 
#   End point for band 03,     K = (  0.37500,  0.37500,  0.75000) will be at real distance =     1.23744 
#
# Start point for band 04,     K = (  0.37500,  0.37500,  0.75000) will be at real distance =     1.23744 
#   End point for band 04, Gamma = (  0.00000,  0.00000,  0.00000) will be at real distance =     2.15600 
#
# Start point for band 05, Gamma = (  0.00000,  0.00000,  0.00000) will be at real distance =     2.15600 
#   End point for band 05, Lambda = (  0.25000,  0.25000,  0.25000) will be at real distance =     2.58901 
#
# Start point for band 06, Lambda = (  0.25000,  0.25000,  0.25000) will be at real distance =     2.58901 
#   End point for band 06,     L = (  0.50000,  0.50000,  0.50000) will be at real distance =     3.02202 
#
# number of phonon branches : 6 
#
# q-distance(frac.)  frequencies(cm^-1) 
0.000000    -0.064727   -0.064727   -0.064727  154.064927  154.064927  154.064927 
0.003571     0.854797    0.854797    1.472419  154.065437  154.066691  154.066691 
0.007142     1.713145    1.713145    2.946837  154.066966  154.071984  154.071984 
0.010714     2.570432    2.570432    4.420509  154.069512  154.080801  154.080801 
0.014285     3.427151    3.427151    5.893657  154.073069  154.093134  154.093134 
0.017856     4.283303    4.283303    7.366218  154.077630  154.108972  154.108972 
0.021427     5.138807    5.138807    8.838079  154.083186  154.128303  154.128303 
0.024999     5.993560    5.993560   10.309116  154.089727  154.151110  154.151110 
0.028570     6.847450    6.847450   11.779200  154.097238  154.177373  154.177373 
0.032141     7.700363    7.700363   13.248199  154.105705  154.207071  154.207071 
0.035712     8.552180    8.552180   14.715981  154.115111  154.240177  154.240177 
0.039284     9.402786    9.402786   16.182413  154.125437  154.276665  154.276665 
0.042855    10.252063   10.252063   17.647364  154.136663  154.316502  154.316502 
0.046426    11.099892   11.099892   19.110699  154.148765  154.359657  154.359657 
0.049997    11.946158   11.946158   20.572288  154.161719  154.406091  154.406091 
0.053569    12.790744   12.790744   22.031998  154.175499  154.455766  154.455766 
0.057140    13.633534   13.633534   23.489698  154.190076  154.508639  154.508639 
0.060711    14.474413   14.474413   24.945257  154.205420  154.564667  154.564667 
0.064282    15.313267   15.313267   26.398544  154.221500  154.623802  154.623802 
0.067854    16.149982   16.149982   27.849430  154.238282  154.685994  154.685994 
0.071425    16.984445   16.984445   29.297786  154.255731  154.751192  154.751192 
0.074996    17.816545   17.816545   30.743482  154.273810  154.819339  154.819339 
0.078567    18.646171   18.646171   32.186392  154.292480  154.890380  154.890380 
0.082139    19.473213   19.473213   33.626386  154.311703  154.964254  154.964254 
0.085710    20.297562   20.297562   35.063340  154.331436  155.040900  155.040900 
0.089281    21.119110   21.119110   36.497127  154.351636  155.120254  155.120254 
0.092852    21.937752   21.937752   37.927623  154.372259  155.202249  155.202249 
0.096424    22.753381   22.753381   39.354702  154.393259  155.286818  155.286818 
0.099995    23.565894   23.565894   40.778242  154.414590  155.373890  155.373890 
0.103566    24.375187   24.375187   42.198121  154.436203  155.463393  155.463393 
0.107137    25.181158   25.181158   43.614216  154.458047  155.555252  155.555252 
0.110709    25.983708   25.983708   45.026407  154.480074  155.649393  155.649393 
0.114280    26.782737   26.782737   46.434574  154.502230  155.745736  155.745736 
0.117851    27.578148   27.578148   47.838599  154.524462  155.844204  155.844204 
0.121422    28.369844   28.369844   49.238364  154.546718  155.944715  155.944715 
0.124994    29.157730   29.157730   50.633752  154.568941  156.047186  156.047186 
0.128565    29.941712   29.941712   52.024648  154.591077  156.151534  156.151534 
0.132136    30.721699   30.721699   53.410937  154.613069  156.257675  156.257675 
0.135707    31.497601   31.497601   54.792505  154.634859  156.365520  156.365520 
0.139279    32.269326   32.269326   56.169240  154.656389  156.474984  156.474984 
0.142850    33.036790   33.036790   57.541031  154.677601  156.585978  156.585978 
0.146421    33.799904   33.799904   58.907768  154.698436  156.698412  156.698412 
0.149992    34.558585   34.558585   60.269342  154.718833  156.812196  156.812196 
0.153564    35.312749   35.312749   61.625644  154.738733  156.927238  156.927238 
0.157135    36.062315   36.062315   62.976569  154.758076  157.043448  157.043448 
0.160706    36.807204   36.807204   64.322012  154.776799  157.160731  157.160731 
0.164277    37.547337   37.547337   65.661867  154.794843  157.278996  157.278996 
0.167849    38.282638   38.282638   66.996032  154.812146  157.398149  157.398149 
0.171420    39.013030   39.013030   68.324405  154.828647  157.518097  157.518097 
0.174991    39.738442   39.738442   69.646887  154.844285  157.638745  157.638745 
0.178562    40.458800   40.458800   70.963377  154.858997  157.759999  157.759999 
0.182134    41.174036   41.174036   72.273778  154.872724  157.881765  157.881765 
0.185705    41.884079   41.884079   73.577994  154.885404  158.003949  158.003949 
0.189276    42.588864   42.588864   74.875929  154.896977  158.126457  158.126457 
0.192847    43.288325   43.288325   76.167489  154.907381  158.249195  158.249195 
0.196419    43.982398   43.982398   77.452581  154.916558  158.372070  158.372070 
0.199990    44.671021   44.671021   78.731114  154.924447  158.494989  158.494989 
0.203561    45.354134   45.354134   80.002999  154.930991  158.617859  158.617859 
0.207132    46.031678   46.031678   81.268145  154.936130  158.740589  158.740589 
0.210704    46.703596   46.703596   82.526467  154.939807  158.863086  158.863086 
0.214275    47.369831   47.369831   83.777876  154.941965  158.985261  158.985261 
0.217846    48.030331   48.030331   85.022290  154.942549  159.107024  159.107024 
0.221417    48.685042   48.685042   86.259624  154.941504  159.228286  159.228286 
0.224989    49.333914   49.333914   87.489795  154.938775  159.348960  159.348960 
0.228560    49.976898   49.976898   88.712723  154.934310  159.468958  159.468958 
0.232131    50.613946   50.613946   89.928328  154.928057  159.588196  159.588196 
0.235702    51.245013   51.245013   91.136531  154.919965  159.706590  159.706590 
0.239274    51.870053   51.870053   92.337256  154.909987  159.824056  159.824056 
0.242845    52.489023   52.489023   93.530425  154.898073  159.940514  159.940514 
0.246416    53.101884   53.101884   94.715964  154.884178  160.055884  160.055884 
0.249987    53.708594   53.708594   95.893800  154.868257  160.170086  160.170086 
0.253558    54.309115   54.309115   97.063859  154.850267  160.283046  160.283046 
0.257130    54.903412   54.903412   98.226070  154.830168  160.394688  160.394688 
0.260701    55.491448   55.491448   99.380363  154.807919  160.504938  160.504938 
0.264272    56.073191   56.073191  100.526668  154.783484  160.613726  160.613726 
0.267843    56.648607   56.648607  101.664917  154.756826  160.720983  160.720983 
0.271415    57.217667   57.217667  102.795042  154.727914  160.826640  160.826640 
0.274986    57.780342   57.780342  103.916977  154.696715  160.930634  160.930634 
0.278557    58.336603   58.336603  105.030656  154.663201  161.032900  161.032900 
0.282128    58.886424   58.886424  106.136013  154.627346  161.133378  161.133378 
0.285700    59.429782   59.429782  107.232985  154.589126  161.232009  161.232009 
0.289271    59.966653   59.966653  108.321508  154.548520  161.328737  161.328737 
0.292842    60.497015   60.497015  109.401518  154.505511  161.423506  161.423506 
0.296413    61.020848   61.020848  110.472953  154.460082  161.516266  161.516266 
0.299985    61.538133   61.538133  111.535751  154.412223  161.606967  161.606967 
0.303556    62.048854   62.048854  112.589847  154.361923  161.695562  161.695562 
0.307127    62.552993   62.552993  113.635182  154.309178  161.782006  161.782006 
0.310698    63.050537   63.050537  114.671691  154.253987  161.866257  161.866257 
0.314270    63.541473   63.541473  115.699312  154.196351  161.948276  161.948276 
0.317841    64.025789   64.025789  116.717981  154.136276  162.028026  162.028026 
0.321412    64.503475   64.503475  117.727634  154.073775  162.105472  162.105472 
0.324983    64.974523   64.974523  118.728205  154.008862  162.180582  162.180582 
0.328555    65.438926   65.438926  119.719628  153.941558  162.253328  162.253328 
0.332126    65.896677   65.896677  120.701833  153.871889  162.323683  162.323683 
0.335697    66.347773   66.347773  121.674750  153.799888  162.391623  162.391623 
0.339268    66.792211   66.792211  122.638303  153.725593  162.457127  162.457127 
0.342840    67.229989   67.229989  123.592416  153.649051  162.520176  162.520176 
0.346411    67.661107   67.661107  124.537006  153.570315  162.580754  162.580754 
0.349982    68.085568   68.085568  125.471987  153.489448  162.638849  162.638849 
0.353553    68.503374   68.503374  126.397265  153.406523  162.694449  162.694449 

0.353553    68.503374   68.503374  126.397265  153.406523  162.694449  162.694449 
0.357125    68.914530   68.914530  127.312739  153.321623  162.747548  162.747548 
0.360696    69.319042   69.319042  128.218301  153.234845  162.798139  162.798139 
0.364267    69.716917   69.716917  129.113830  153.146299  162.846220  162.846220 
0.367838    70.108164   70.108164  129.999192  153.056114  162.891792  162.891792 
0.371410    70.492795   70.492795  130.874239  152.964435  162.934856  162.934856 
0.374981    70.870820   70.870820  131.738802  152.871434  162.975419  162.975419 
0.378552    71.242254   71.242254  132.592690  152.777305  163.013488  163.013488 
0.382123    71.607112   71.607112  133.435685  152.682278  163.049074  163.049074 
0.385695    71.965410   71.965410  134.267530  152.586620  163.082188  163.082188 
0.389266    72.317167   72.317167  135.087930  152.490644  163.112848  163.112848 
0.392837    72.662403   72.662403  135.896531  152.394722  163.141070  163.141070 
0.396408    73.001139   73.001139  136.692918  152.299294  163.166874  163.166874 
0.399980    73.333398   73.333398  137.476586  152.204892  163.190284  163.190284 
0.403551    73.659204   73.659204  138.246925  152.112154  163.211323  163.211323 
0.407122    73.978585   73.978585  139.003189  152.021862  163.230020  163.230020 
0.410693    74.291567   74.291567  139.744456  151.934977  163.246403  163.246403 
0.414265    74.598181   74.598181  140.469575  151.852687  163.260504  163.260504 
0.417836    74.898458   74.898458  141.177103  151.776482  163.272356  163.272356 
0.421407    75.192430   75.192430  141.865213  151.708236  163.281995  163.281995 
0.424978    75.480132   75.480132  142.531583  151.650322  163.289458  163.289458 
0.428550    75.761601   75.761601  143.173259  151.605746  163.294785  163.294785 
0.432121    76.036874   76.036874  143.786496  151.578313  163.298018  163.298018 
0.435692    76.305991   76.305991  144.366602  151.572775  163.299199  163.299199 
0.439263    76.568993   76.568993  144.907849  151.594923  163.298373  163.298373 
0.442835    76.825924   76.825924  145.403552  151.651507  163.295587  163.295587 
0.446406    77.076827   77.076827  145.846499  151.749812  163.290889  163.290889 
0.449977    77.321751   77.321751  146.229863  151.896736  163.284328  163.284328 
0.453548    77.560742   77.560742  146.548568  152.097428  163.275955  163.275955 
0.457120    77.793852   77.793852  146.800697  152.353888  163.265823  163.265823 
0.460691    78.021131   78.021131  146.988213  152.664229  163.253986  163.253986 
0.464262    78.242633   78.242633  147.116575  153.023078  163.240497  163.240497 
0.467833    78.458413   78.458413  147.193433  153.422871  163.225413  163.225413 
0.471405    78.668528   78.668528  147.227128  153.855355  163.208792  163.208792 
0.474976    78.873037   78.873037  147.225555  154.312726  163.190690  163.190690 
0.478547    79.072000   79.072000  147.195574  154.788218  163.171167  163.171167 
0.482118    79.265478   79.265478  147.142845  155.276266  163.150282  163.150282 
0.485690    79.453535   79.453535  147.071906  155.772429  163.128096  163.128096 
0.489261    79.636236   79.636236  146.986346  156.273219  163.104669  163.104669 
0.492832    79.813649   79.813649  146.888990  156.775911  163.080063  163.080063 
0.496403    79.985840   79.985840  146.782068  157.278380  163.054340  163.054340 
0.499974    80.152881   80.152881  146.667354  157.778956  163.027562  163.027562 
0.503546    80.314841   80.314841  146.546268  158.276327  162.999792  162.999792 
0.507117    80.471795   80.471795  146.419962  158.769449  162.971093  162.971093 
0.510688    80.623816   80.623816  146.289381  159.257487  162.941527  162.941527 
0.514259    80.770980   80.770980  146.155308  159.739769  162.911158  162.911158 
0.517831    80.913364   80.913364  146.018405  160.215746  162.880049  162.880049 
0.521402    81.051045   81.051045  145.879231  160.684973  162.848263  162.848263 
0.524973    81.184104   81.184104  145.738270  161.147078  162.815862  162.815862 
0.528544    81.312620   81.312620  145.595945  161.601757  162.782910  162.782910 
0.532116    81.436675   81.436675  145.452628  162.048752  162.749468  162.749468 
0.535687    81.556352   81.556352  145.308650  162.487850  162.715599  162.715599 
0.539258    81.671734   81.671734  145.164311  162.681364  162.681364  162.918867 
0.542829    81.782905   81.782905  145.019883  162.646824  162.646824  163.341651 
0.546401    81.889951   81.889951  144.875615  162.612039  162.612039  163.756068 
0.549972    81.992958   81.992958  144.731739  162.577070  162.577070  164.162007 
0.553543    82.092011   82.092011  144.588470  162.541975  162.541975  164.559370 
0.557114    82.187197   82.187197  144.446010  162.506812  162.506812  164.948073 
0.560686    82.278605   82.278605  144.304549  162.471640  162.471640  165.328044 
0.564257    82.366321   82.366321  144.164268  162.436516  162.436516  165.699219 
0.567828    82.450433   82.450433  144.025338  162.401494  162.401494  166.061544 
0.571399    82.531028   82.531028  143.887924  162.366630  162.366630  166.414971 
0.574971    82.608196   82.608196  143.752184  162.331977  162.331977  166.759457 
0.578542    82.682023   82.682023  143.618268  162.297589  162.297589  167.094966 
0.582113    82.752596   82.752596  143.486322  162.263518  162.263518  167.421466 
0.585684    82.820004   82.820004  143.356488  162.229814  162.229814  167.738927 
0.589256    82.884332   82.884332  143.228901  162.196526  162.196526  168.047326 
0.592827    82.945666   82.945666  143.103692  162.163702  162.163702  168.346640 
0.596398    83.004091   83.004091  142.980989  162.131391  162.131391  168.636850 
0.599969    83.059692   83.059692  142.860916  162.099638  162.099638  168.917939 
0.603541    83.112551   83.112551  142.743591  162.068486  162.068486  169.189891 
0.607112    83.162752   83.162752  142.629131  162.037981  162.037981  169.452693 
0.610683    83.210375   83.210375  142.517648  162.008163  162.008163  169.706334 
0.614254    83.255498   83.255498  142.409249  161.979073  161.979073  169.950803 
0.617826    83.298201   83.298201  142.304039  161.950750  161.950750  170.186091 
0.621397    83.338560   83.338560  142.202121  161.923232  161.923232  170.412190 
0.624968    83.376649   83.376649  142.103591  161.896556  161.896556  170.629094 
0.628539    83.412540   83.412540  142.008543  161.870756  161.870756  170.836795 
0.632111    83.446305   83.446305  141.917069  161.845867  161.845867  171.035290 
0.635682    83.478011   83.478011  141.829254  161.821920  161.821920  171.224572 
0.639253    83.507725   83.507725  141.745183  161.798945  161.798945  171.404637 
0.642824    83.535511   83.535511  141.664934  161.776973  161.776973  171.575483 
0.646396    83.561429   83.561429  141.588584  161.756030  161.756030  171.737106 
0.649967    83.585539   83.585539  141.516204  161.736144  161.736144  171.889503 
0.653538    83.607896   83.607896  141.447863  161.717339  161.717339  172.032673 
0.657109    83.628554   83.628554  141.383626  161.699637  161.699637  172.166612 
0.660681    83.647562   83.647562  141.323552  161.683062  161.683062  172.291320 
0.664252    83.664969   83.664969  141.267698  161.667633  161.667633  172.406794 
0.667823    83.680816   83.680816  141.216117  161.653369  161.653369  172.513035 
0.671394    83.695147   83.695147  141.168857  161.640287  161.640287  172.610039 
0.674966    83.707997   83.707997  141.125963  161.628404  161.628404  172.697807 
0.678537    83.719402   83.719402  141.087476  161.617733  161.617733  172.776339 
0.682108    83.729392   83.729392  141.053430  161.608287  161.608287  172.845632 
0.685679    83.737994   83.737994  141.023859  161.600078  161.600078  172.905687 
0.689251    83.745232   83.745232  140.998790  161.593116  161.593116  172.956504 
0.692822    83.751127   83.751127  140.978247  161.587408  161.587408  172.998082 
0.696393    83.755694   83.755694  140.962249  161.582961  161.582961  173.030420 
0.699964    83.758947   83.758947  140.950811  161.579781  161.579781  173.053519 
0.703536    83.760896   83.760896  140.943944  161.577872  161.577872  173.067379 
0.707107    83.761544   83.761544  140.941654  161.577235  161.577235  173.071998 

0.707107    83.761544   83.761544  140.941654  161.577235  161.577235  173.071998 
0.710678    83.768391   83.770620  140.940300  161.574658  161.579066  173.072053 
0.714249    83.788924   83.797839  140.936236  161.566928  161.584556  173.072216 
0.717821    83.823124   83.843169  140.929458  161.554043  161.593703  173.072488 
0.721392    83.870957   83.906561  140.919957  161.536003  161.606499  173.072869 
0.724963    83.932377   83.987944  140.907723  161.512807  161.622934  173.073358 
0.728534    84.007325   84.087228  140.892740  161.484451  161.642996  173.073956 
0.732106    84.095728   84.204304  140.874993  161.450935  161.666670  173.074663 
0.735677    84.197502   84.339045  140.854459  161.412256  161.693939  173.075478 
0.739248    84.312549   84.491302  140.831117  161.368410  161.724781  173.076402 
0.742819    84.440761   84.660912  140.804940  161.319394  161.759174  173.077433 
0.746390    84.582015   84.847692  140.775898  161.265205  161.797092  173.078571 
0.749962    84.736180   85.051442  140.743960  161.205838  161.838507  173.079815 
0.753533    84.903111   85.271948  140.709091  161.141289  161.883388  173.081165 
0.757104    85.082654   85.508978  140.671255  161.071553  161.931701  173.082619 
0.760675    85.274644   85.762286  140.630410  160.996626  161.983410  173.084175 
0.764247    85.478906   86.031612  140.586517  160.916501  162.038476  173.085830 
0.767818    85.695256   86.316683  140.539530  160.831174  162.096859  173.087584 
0.771389    85.923501   86.617212  140.489403  160.740639  162.158516  173.089432 
0.774960    86.163438   86.932901  140.436088  160.644889  162.223399  173.091371 
0.778532    86.414858   87.263442  140.379534  160.543919  162.291462  173.093397 
0.782103    86.677543   87.608515  140.319690  160.437722  162.362653  173.095504 
0.785674    86.951269   87.967792  140.256502  160.326292  162.436921  173.097687 
0.789245    87.235804   88.340935  140.189916  160.209623  162.514209  173.099940 
0.792817    87.530912   88.727599  140.119874  160.087708  162.594461  173.102256 
0.796388    87.836348   89.127433  140.046320  159.960540  162.677618  173.104625 
0.799959    88.151866   89.540078  139.969195  159.828113  162.763619  173.107040 
0.803530    88.477213   89.965171  139.888440  159.690421  162.852400  173.109489 
0.807102    88.812132   90.402342  139.803995  159.547457  162.943897  173.111962 
0.810673    89.156362   90.851220  139.715799  159.399216  163.038042  173.114445 
0.814244    89.509641   91.311428  139.623792  159.245691  163.134767  173.116926 
0.817815    89.871702   91.782587  139.527912  159.086877  163.234000  173.119390 
0.821387    90.242276   92.264317  139.428097  158.922768  163.335671  173.121819 
0.824958    90.621093   92.756236  139.324288  158.753360  163.439705  173.124198 
0.828529    91.007881   93.257958  139.216422  158.578649  163.546026  173.126507 
0.832100    91.402367   93.769101  139.104439  158.398630  163.654559  173.128725 
0.835672    91.804279   94.289281  138.988279  158.213301  163.765225  173.130833 
0.839243    92.213341   94.818114  138.867883  158.022658  163.877944  173.132805 
0.842814    92.629281   95.355217  138.743190  157.826701  163.992635  173.134618 
0.846385    93.051824   95.900209  138.614144  157.625428  164.109218  173.136247 
0.849957    93.480700   96.452710  138.480687  157.418839  164.227609  173.137663 
0.853528    93.915635   97.012341  138.342764  157.206936  164.347723  173.138837 
0.857099    94.356360   97.578728  138.200319  156.989722  164.469476  173.139741 
0.860670    94.802606   98.151496  138.053299  156.767199  164.592783  173.140341 
0.864242    95.254107   98.730275  137.901653  156.539374  164.717556  173.140604 
0.867813    95.710597   99.314695  137.745330  156.306253  164.843708  173.140497 
0.871384    96.171815   99.904393  137.584281  156.067845  164.971152  173.139983 
0.874955    96.637500  100.499006  137.418460  155.824160  165.099799  173.139025 
0.878527    97.107396  101.098173  137.247820  155.575211  165.229561  173.137585 
0.882098    97.581247  101.701540  137.072318  155.321014  165.360347  173.135622 
0.885669    98.058804  102.308751  136.891914  155.061585  165.492069  173.133096 
0.889240    98.539818  102.919458  136.706566  154.796946  165.624637  173.129964 
0.892812    99.024044  103.533312  136.516238  154.527119  165.757961  173.126184 
0.896383    99.511241  104.149967  136.320895  154.252133  165.891951  173.121711 
0.899954   100.001170  104.769083  136.120503  153.972017  166.026518  173.116500 
0.903525   100.493599  105.390317  135.915030  153.686806  166.161572  173.110506 
0.907097   100.988297  106.013332  135.704448  153.396540  166.297024  173.103681 
0.910668   101.485037  106.637791  135.488730  153.101263  166.432784  173.095978 
0.914239   101.983596  107.263358  135.267851  152.801024  166.568764  173.087350 
0.917810   102.483755  107.889697  135.041790  152.495880  166.704875  173.077748 
0.921382   102.985301  108.516473  134.810526  152.185892  166.841031  173.067123 
0.924953   103.488021  109.143351  134.574042  151.871130  166.977143  173.055425 
0.928524   103.991710  109.769992  134.332322  151.551674  167.113127  173.042606 
0.932095   104.496164  110.396058  134.085354  151.227608  167.248896  173.028617 
0.935667   105.001184  111.021205  133.833126  150.899032  167.384365  173.013407 
0.939238   105.506576  111.645085  133.575630  150.566053  167.519452  172.996927 
0.942809   106.012150  112.267346  133.312861  150.228794  167.654074  172.979129 
0.946380   106.517719  112.887625  133.044814  149.887390  167.788148  172.959964 
0.949952   107.023099  113.505554  132.771488  149.541993  167.921596  172.939383 
0.953523   107.528114  114.120749  132.492883  149.192774  168.054338  172.917338 
0.957094   108.032588  114.732818  132.209004  148.839922  168.186296  172.893783 
0.960665   108.536350  115.341347  131.919855  148.483653  168.317395  172.868671 
0.964237   109.039235  115.945905  131.625444  148.124207  168.447559  172.841957 
0.967808   109.541079  116.546037  131.325782  147.761856  168.576716  172.813595 
0.971379   110.041724  117.141261  131.020880  147.396905  168.704794  172.783543 
0.974950   110.541015  117.731060  130.710753  147.029700  168.831723  172.751758 
0.978522   111.038800  118.314879  130.395418  146.660634  168.957436  172.718199 
0.982093   111.534932  118.892117  130.074894  146.290151  169.081866  172.682826 
0.985664   112.029268  119.462120  129.749202  145.918757  169.204949  172.645601 
0.989235   112.521668  120.024166  129.418366  145.547029  169.326622  172.606486 
0.992806   113.011994  120.577460  129.082411  145.175627  169.446826  172.565448 
0.996378   113.500114  121.121120  128.741366  144.805304  169.565502  172.522452 
0.999949   113.985899  121.654156  128.395260  144.436928  169.682594  172.477467 
1.003520   114.469223  122.175459  128.044127  144.071492  169.798047  172.430462 
1.007091   114.949963  122.683777  127.688000  143.710138  169.911811  172.381410 
1.010663   115.428000  123.177693  127.326918  143.354182  170.023835  172.330284 
1.014234   115.903218  123.655600  126.960918  143.005135  170.134073  172.277062 
1.017805   116.375504  124.115676  126.590043  142.664730  170.242479  172.221720 
1.021376   116.844750  124.555855  126.214336  142.334950  170.349012  172.164240 
1.024948   117.310848  124.973804  125.833844  142.018053  170.453630  172.104603 
1.028519   117.773696  125.366909  125.448614  141.716585  170.556297  172.042795 
1.032090   118.233192  125.058696  125.732263  141.433389  170.656977  171.978804 
1.035661   118.689241  124.664145  126.066688  141.171587  170.755637  171.912617 
1.039233   119.141748  124.265015  126.366776  140.934538  170.852248  171.844228 
1.042804   119.590621  123.861364  126.628978  140.725750  170.946782  171.773632 
1.046375   120.035772  123.453252  126.849729  140.548750  171.039213  171.700823 
1.049946   120.477115  123.040741  127.025639  140.406899  171.129519  171.625803 
1.053518   120.914566  122.623897  127.153710  140.303173  171.217681  171.548573 
1.057089   121.348047  122.202786  127.231572  140.239924  171.303681  171.469138 
1.060660   121.777478  121.777478  127.257701  140.218666  171.387504  171.387504 

1.060660   121.777478  121.777478  127.257701  140.218666  171.387504  171.387504 
1.062446   121.558731  121.990324  127.254472  140.225218  171.346205  171.428730 
1.064231   121.329858  122.201469  127.245294  140.244394  171.305079  171.469678 
1.066017   121.090879  122.410901  127.230932  140.275438  171.264188  171.510342 
1.067803   120.841866  122.618607  127.212145  140.317550  171.223593  171.550719 
1.069588   120.582943  122.824572  127.189660  140.369909  171.183352  171.590805 
1.071374   120.314286  123.028783  127.164167  140.431685  171.143527  171.630596 
1.073160   120.036123  123.231227  127.136306  140.502048  171.104175  171.670089 
1.074945   119.748724  123.431892  127.106659  140.580183  171.065356  171.709280 
1.076731   119.452399  123.630764  127.075752  140.665297  171.027126  171.748165 
1.078516   119.147493  123.827831  127.044047  140.756627  170.989542  171.786741 
1.080302   118.834380  124.023079  127.011950  140.853440  170.952658  171.825003 
1.082088   118.513454  124.216497  126.979808  140.955044  170.916529  171.862949 
1.083873   118.185129  124.408072  126.947917  141.060783  170.881208  171.900574 
1.085659   117.849828  124.597791  126.916525  141.170042  170.846745  171.937876 
1.087445   117.507980  124.785642  126.885835  141.282247  170.813191  171.974849 
1.089230   117.160020  124.971614  126.856013  141.396860  170.780593  172.011492 
1.091016   116.806377  125.155694  126.827192  141.513384  170.748998  172.047800 
1.092801   116.447481  125.337871  126.799472  141.631357  170.718450  172.083770 
1.094587   116.083752  125.518132  126.772932  141.750355  170.688991  172.119399 
1.096373   115.715604  125.696466  126.747627  141.869984  170.660661  172.154682 
1.098158   115.343440  125.872862  126.723595  141.989883  170.633499  172.189617 
1.099944   114.967654  126.047309  126.700858  142.109719  170.607540  172.224200 
1.101730   114.588629  126.219795  126.679426  142.229189  170.582818  172.258429 
1.103515   114.206733  126.390309  126.659299  142.348015  170.559362  172.292298 
1.105301   113.822328  126.558840  126.640466  142.465942  170.537202  172.325806 
1.107086   113.435759  126.622914  126.725377  142.582739  170.516362  172.358949 
1.108872   113.047364  126.606619  126.889911  142.698196  170.496865  172.391724 
1.110658   112.657466  126.591556  127.052429  142.812121  170.478731  172.424128 
1.112443   112.266381  126.577696  127.212922  142.924344  170.461976  172.456156 
1.114229   111.874412  126.565007  127.371380  143.034708  170.446614  172.487807 
1.116014   111.481854  126.553455  127.527792  143.143075  170.432655  172.519078 
1.117800   111.088991  126.543005  127.682148  143.249321  170.420108  172.549964 
1.119586   110.696101  126.533620  127.834439  143.353336  170.408976  172.580463 
1.121371   110.303451  126.525264  127.984654  143.455023  170.399260  172.610573 
1.123157   109.911301  126.517899  128.132784  143.554299  170.390959  172.640289 
1.124943   109.519906  126.511487  128.278820  143.651091  170.384067  172.669610 
1.126728   109.129510  126.505992  128.422752  143.745336  170.378576  172.698532 
1.128514   108.740355  126.501375  128.564571  143.836984  170.374474  172.727052 
1.130299   108.352673  126.497600  128.704268  143.925994  170.371747  172.755168 
1.132085   107.966695  126.494632  128.841834  144.012332  170.370377  172.782876 
1.133871   107.582642  126.492432  128.977260  144.095975  170.370343  172.810175 
1.135656   107.200733  126.490967  129.110537  144.176906  170.371622  172.837061 
1.137442   106.821183  126.490201  129.241658  144.255118  170.374186  172.863531 
1.139228   106.444199  126.490101  129.370613  144.330609  170.378006  172.889583 
1.141013   106.069989  126.490631  129.497395  144.403385  170.383051  172.915215 
1.142799   105.698753  126.491759  129.621995  144.473457  170.389286  172.940423 
1.144584   105.330689  126.493453  129.744405  144.540844  170.396672  172.965206 
1.146370   104.965993  126.495681  129.864618  144.605568  170.405171  172.989560 
1.148156   104.604855  126.498411  129.982625  144.667658  170.414740  173.013484 
1.149941   104.247464  126.501612  130.098420  144.727146  170.425336  173.036974 
1.151727   103.894004  126.505255  130.211995  144.784070  170.436913  173.060029 
1.153513   103.544659  126.509310  130.323342  144.838473  170.449422  173.082647 
1.155298   103.199607  126.513749  130.432456  144.890398  170.462815  173.104824 
1.157084   102.859026  126.518542  130.539327  144.939895  170.477040  173.126558 
1.158869   102.523090  126.523661  130.643951  144.987015  170.492045  173.147849 
1.160655   102.191970  126.529081  130.746320  145.031813  170.507775  173.168692 
1.162441   101.865835  126.534773  130.846427  145.074347  170.524177  173.189087 
1.164226   101.544852  126.540712  130.944266  145.114675  170.541195  173.209031 
1.166012   101.229185  126.546872  131.039832  145.152859  170.558772  173.228522 
1.167798   100.918994  126.553228  131.133118  145.188962  170.576852  173.247558 
1.169583   100.614440  126.559754  131.224117  145.223048  170.595377  173.266137 
1.171369   100.315677  126.566428  131.312825  145.255184  170.614288  173.284257 
1.173154   100.022860  126.573225  131.399235  145.285435  170.633529  173.301917 
1.174940    99.736139  126.580122  131.483342  145.313869  170.653042  173.319114 
1.176726    99.455662  126.587097  131.565141  145.340554  170.672768  173.335848 
1.178511    99.181576  126.594128  131.644627  145.365558  170.692651  173.352115 
1.180297    98.914022  126.601192  131.721794  145.388948  170.712632  173.367915 
1.182083    98.653141  126.608269  131.796637  145.410794  170.732657  173.383246 
1.183868    98.399069  126.615338  131.869152  145.431162  170.752668  173.398105 
1.185654    98.151939  126.622380  131.939335  145.450119  170.772611  173.412493 
1.187439    97.911883  126.629374  132.007180  145.467733  170.792432  173.426407 
1.189225    97.679028  126.636302  132.072683  145.484068  170.812076  173.439846 
1.191011    97.453498  126.643146  132.135841  145.499190  170.831493  173.452808 
1.192796    97.235413  126.649886  132.196649  145.513161  170.850632  173.465292 
1.194582    97.024891  126.656507  132.255104  145.526043  170.869442  173.477297 
1.196368    96.822046  126.662992  132.311200  145.537898  170.887875  173.488822 
1.198153    96.626987  126.669323  132.364937  145.548785  170.905885  173.499865 
1.199939    96.439821  126.675486  132.416308  145.558759  170.923427  173.510426 
1.201724    96.260650  126.681466  132.465312  145.567878  170.940455  173.520502 
1.203510    96.089572  126.687248  132.511946  145.576195  170.956930  173.530094 
1.205296    95.926681  126.692818  132.556206  145.583761  170.972809  173.539199 
1.207081    95.772068  126.698164  132.598089  145.590626  170.988056  173.547818 
1.208867    95.625819  126.703273  132.637593  145.596837  171.002632  173.555949 
1.210653    95.488015  126.708133  132.674716  145.602440  171.016503  173.563592 
1.212438    95.358733  126.712732  132.709455  145.607476  171.029636  173.570745 
1.214224    95.238045  126.717061  132.741807  145.611985  171.042000  173.577409 
1.216009    95.126021  126.721109  132.771771  145.616007  171.053566  173.583581 
1.217795    95.022721  126.724867  132.799345  145.619575  171.064308  173.589262 
1.219581    94.928207  126.728328  132.824527  145.622722  171.074199  173.594451 
1.221366    94.842530  126.731482  132.847316  145.625479  171.083218  173.599147 
1.223152    94.765739  126.734323  132.867710  145.627872  171.091344  173.603351 
1.224938    94.697880  126.736845  132.885707  145.629925  171.098558  173.607060 
1.226723    94.638989  126.739042  132.901308  145.631661  171.104843  173.610276 
1.228509    94.589101  126.740910  132.914509  145.633098  171.110186  173.612998 
1.230294    94.548244  126.742443  132.925312  145.634251  171.114573  173.615226 
1.232080    94.516443  126.743639  132.933715  145.635135  171.117996  173.616958 
1.233866    94.493714  126.744496  132.939717  145.635759  171.120447  173.618196 
1.235651    94.480072  126.745010  132.943319  145.636130  171.121919  173.618939 
1.237437    94.475524  126.745182  132.944519  145.636254  171.122411  173.619186 

1.237437    94.475524  126.745182  132.944519  145.636254  171.122411  173.619186 
1.246715    95.085580  128.420891  132.394265  144.698332  171.529671  173.649412 
1.255994    95.708173  130.067188  131.823366  143.737580  171.932290  173.678320 
1.265272    96.342826  131.231797  131.680686  142.754462  172.329622  173.705535 
1.274550    96.989043  130.619552  133.258060  141.749467  172.721111  173.730668 
1.283829    97.646307  129.986646  134.796032  140.723107  173.106299  173.753320 
1.293107    98.314078  129.333112  136.291368  139.675920  173.484830  173.773085 
1.302385    98.991784  128.659002  137.740868  138.608476  173.789548  173.856453 
1.311664    99.678817  127.964383  137.521387  139.141361  173.802292  174.221030 
1.320942   100.374524  127.249339  136.415310  140.489703  173.810898  174.578527 
1.330221   101.078194  126.513964  135.290962  141.782775  173.814948  174.929020 
1.339499   101.789040  125.758368  134.149139  143.017491  173.814028  175.272685 
1.348777   102.506178  124.982671  132.990736  144.190802  173.807727  175.609785 
1.358056   103.228589  124.187000  131.816782  145.299714  173.795643  175.940658 
1.367334   103.955075  123.371496  130.628492  146.341305  173.777381  176.265696 
1.376612   104.684178  122.536302  129.427335  147.312753  173.752558  176.585314 
1.385891   105.414076  121.681571  128.215150  148.211362  173.720803  176.899919 
1.395169   106.142402  120.807461  126.994321  149.034603  173.681759  177.209877 
1.404448   106.865963  119.914134  125.768057  149.780152  173.635084  177.515467 
1.413726   107.580265  119.001757  124.540871  150.445928  173.580455  177.816840 
1.423004   108.278693  118.070500  123.319393  151.030134  173.517564  178.113984 
1.432283   108.951043  117.120534  122.113845  151.531291  173.446124  178.406682 
1.441561   109.580815  116.152035  120.940745  151.948264  173.365868  178.694490 
1.450839   110.140218  115.165177  119.827898  152.280279  173.276549  178.976718 
1.460118   110.581680  114.160137  118.822892  152.526925  173.177945  179.252423 
1.469396   110.827917  113.137092  118.003025  152.688148  173.069854  179.520422 
1.478674   110.778266  112.096219  117.468971  152.764223  172.952099  179.779312 
1.487953   110.363583  111.037694  117.289885  152.755726  172.824526  180.027502 
1.497231   109.610176  109.961695  117.439469  152.663491  172.687008  180.263251 
1.506510   108.610438  108.868395  117.825333  152.488566  172.539440  180.484720 
1.515788   107.451933  107.757971  118.359920  152.232160  172.381745  180.690011 
1.525066   106.192592  106.630596  118.985297  151.895604  172.213870  180.877219 
1.534345   104.866736  105.486440  119.667142  151.480303  172.035790  181.044472 
1.543623   103.494564  104.325676  120.385251  150.987699  171.847503  181.189965 
1.552901   102.088358  103.148473  121.127332  150.419243  171.649037  181.311998 
1.562180   100.655927  101.954998  121.885565  149.776367  171.440443  181.408991 
1.571458    99.202469  100.745418  122.654732  149.060466  171.221801  181.479511 
1.580737    97.731607   99.519898  123.431192  148.272888  170.993215  181.522278 
1.590015    96.245969   98.278601  124.212290  147.414921  170.754816  181.536174 
1.599293    94.747541   97.021690  124.996012  146.487794  170.506762  181.520251 
1.608572    93.237872   95.749326  125.780773  145.492670  170.249233  181.473723 
1.617850    91.718212   94.461668  126.565283  144.430655  169.982439  181.395972 
1.627128    90.189600   93.158875  127.348461  143.302795  169.706611  181.286540 
1.636407    88.652916   91.841106  128.129375  142.110086  169.422007  181.145123 
1.645685    87.108924   90.508518  128.907205  140.853474  169.128908  180.971567 
1.654964    85.558301   89.161268  129.681216  139.533865  168.827619  180.765861 
1.664242    84.001652   87.799512  130.450735  138.152128  168.518468  180.528130 
1.673520    82.439528   86.423407  131.215141  136.709105  168.201805  180.258630 
1.682799    80.872432   85.033109  131.973851  135.205610  167.878003  179.957737 
1.692077    79.300832   83.628776  132.726315  133.642441  167.547454  179.625948 
1.701355    77.725161   82.210565  132.020383  133.472010  167.210572  179.263866 
1.710634    76.145825   80.778636  130.340210  134.210435  166.867790  178.872203 
1.719912    74.563205   79.333148  128.602694  134.941108  166.519560  178.451769 
1.729190    72.977661   77.874263  126.808605  135.663562  166.166352  178.003469 
1.738469    71.389529   76.402144  124.958717  136.377346  165.808653  177.528296 
1.747747    69.799131   74.916957  123.053809  137.082021  165.446966  177.027331 
1.757026    68.206768   73.418870  121.094670  137.777161  165.081808  176.501733 
1.766304    66.612725   71.908054  119.082102  138.462349  164.713712  175.952741 
1.775582    65.017272   70.384682  117.016919  139.137180  164.343221  175.381664 
1.784861    63.420664   68.848932  114.899953  139.801256  163.970893  174.789882 
1.794139    61.823140   67.300985  112.732051  140.454190  163.597295  174.178837 
1.803417    60.224926   65.741027  110.514081  141.095604  163.223005  173.550037 
1.812696    58.626234   64.169247  108.246933  141.725127  162.848606  172.905046 
1.821974    57.027261   62.585839  105.931515  142.342398  162.474691  172.245482 
1.831253    55.428193   60.991004  103.568760  142.947064  162.101859  171.573014 
1.840531    53.829201   59.384945  101.159623  143.538779  161.730713  170.889359 
1.849809    52.230445   57.767872   98.705083  144.117207  161.361858  170.196278 
1.859088    50.632072   56.140003   96.206144  144.682020  160.995902  169.495570 
1.868366    49.034215   54.501560   93.663833  145.232897  160.633455  168.789071 
1.877644    47.436996   52.852771   91.079202  145.769526  160.275124  168.078649 
1.886923    45.840527   51.193871   88.453329  146.291603  159.921515  167.366199 
1.896201    44.244906   49.525103   85.787313  146.798835  159.573232  166.653638 
1.905480    42.650219   47.846716   83.082283  147.290934  159.230872  165.942904 
1.914758    41.056544   46.158965   80.339387  147.767622  158.895027  165.235947 
1.924036    39.463944   44.462115   77.559799  148.228632  158.566281  164.534725 
1.933315    37.872474   42.756437   74.744719  148.673702  158.245211  163.841201 
1.942593    36.282178   41.042207   71.895366  149.102582  157.932383  163.157336 
1.951871    34.693089   39.319713   69.012983  149.515030  157.628349  162.485081 
1.961150    33.105231   37.589247   66.098838  149.910813  157.333653  161.826375 
1.970428    31.518619   35.851109   63.154215  150.289708  157.048822  161.183137 
1.979706    29.933256   34.105609   60.180425  150.651502  156.774368  160.557260 
1.988985    28.349138   32.353060   57.178793  150.995989  156.510787  159.950603 
1.998263    26.766254   30.593785   54.150668  151.322977  156.258558  159.364987 
2.007542    25.184581   28.828114   51.097415  151.632280  156.018141  158.802186 
2.016820    23.604090   27.056384   48.020417  151.923723  155.789975  158.263922 
2.026098    22.024746   25.278936   44.921074  152.197143  155.574479  157.751856 
2.035377    20.446505   23.496121   41.800803  152.452384  155.372051  157.267583 
2.044655    18.869316   21.708294   38.661034  152.689302  155.183063  156.812622 
2.053933    17.293122   19.915816   35.503212  152.907763  155.007867  156.388415 
2.063212    15.717861   18.119054   32.328794  153.107644  154.846787  155.996315 
2.072490    14.143465   16.318379   29.139250  153.288831  154.700124  155.637581 
2.081769    12.569860   14.514167   25.936061  153.451223  154.568152  155.313373 
2.091047    10.996968   12.706799   22.720716  153.594727  154.451117  155.024747 
2.100325     9.424704   10.896656   19.494714  153.719262  154.349238  154.772647 
2.109604     7.852981    9.084124   16.259560  153.824757  154.262706  154.557902 
2.118882     6.281700    7.269587   13.016763  153.911152  154.191684  154.381221 
2.128160     4.710749    5.453418    9.767833  153.978400  154.136306  154.243189 
2.137439     3.139971    3.635957    6.514261  154.026461  154.096676  154.144264 
2.146717     1.568937    1.817314    3.257414  154.055309  154.072868  154.084778 
2.155996    -0.064727   -0.064727   -0.064727  154.064927  154.064927  154.064927 

2.155996    -0.064727   -0.064727   -0.064727  154.064927  154.064927  154.064927 
2.160369     0.669009    0.669009    1.343883  154.064287  154.064287  154.069199 
2.164743     1.342695    1.342695    2.690018  154.062367  154.062367  154.082014 
2.169117     2.015312    2.015312    4.035467  154.059167  154.059167  154.103367 
2.173491     2.687632    2.687632    5.380534  154.054686  154.054686  154.133249 
2.177865     3.359800    3.359800    6.725213  154.048923  154.048923  154.171647 
2.182239     4.031856    4.031856    8.069448  154.041878  154.041878  154.218544 
2.186613     4.703809    4.703809    9.413164  154.033548  154.033548  154.273922 
2.190986     5.375659    5.375659   10.756284  154.023933  154.023933  154.337757 
2.195360     6.047400    6.047400   12.098728  154.013030  154.013030  154.410022 
2.199734     6.719023    6.719023   13.440413  154.000838  154.000838  154.490686 
2.204108     7.390518    7.390518   14.781256  153.987355  153.987355  154.579717 
2.208482     8.061876    8.061876   16.121176  153.972577  153.972577  154.677078 
2.212856     8.733084    8.733084   17.460089  153.956503  153.956503  154.782726 
2.217230     9.404131    9.404131   18.797912  153.939129  153.939129  154.896620 
2.221604    10.075007   10.075007   20.134562  153.920452  153.920452  155.018711 
2.225977    10.745697   10.745697   21.469955  153.900469  153.900469  155.148949 
2.230351    11.416192   11.416192   22.804010  153.879176  153.879176  155.287281 
2.234725    12.086479   12.086479   24.136642  153.856569  153.856569  155.433649 
2.239099    12.756545   12.756545   25.467769  153.832645  153.832645  155.587994 
2.243473    13.426378   13.426378   26.797307  153.807399  153.807399  155.750252 
2.247847    14.095967   14.095967   28.125175  153.780826  153.780826  155.920358 
2.252221    14.765298   14.765298   29.451289  153.752922  153.752922  156.098242 
2.256594    15.434360   15.434360   30.775566  153.723682  153.723682  156.283834 
2.260968    16.103139   16.103139   32.097925  153.693101  153.693101  156.477057 
2.265342    16.771624   16.771624   33.418283  153.661173  153.661173  156.677835 
2.269716    17.439802   17.439802   34.736557  153.627894  153.627894  156.886088 
2.274090    18.107660   18.107660   36.052666  153.593256  153.593256  157.101733 
2.278464    18.775186   18.775186   37.366527  153.557255  153.557255  157.324684 
2.282838    19.442366   19.442366   38.678059  153.519884  153.519884  157.554854 
2.287211    20.109189   20.109189   39.987179  153.481137  153.481137  157.792152 
2.291585    20.775641   20.775641   41.293807  153.441007  153.441007  158.036487 
2.295959    21.441710   21.441710   42.597860  153.399487  153.399487  158.287763 
2.300333    22.107382   22.107382   43.899259  153.356572  153.356572  158.545883 
2.304707    22.772645   22.772645   45.197920  153.312252  153.312252  158.810749 
2.309081    23.437485   23.437485   46.493764  153.266523  153.266523  159.082259 
2.313455    24.101890   24.101890   47.786711  153.219375  153.219375  159.360310 
2.317829    24.765847   24.765847   49.076678  153.170801  153.170801  159.644797 
2.322202    25.429341   25.429341   50.363586  153.120794  153.120794  159.935614 
2.326576    26.092361   26.092361   51.647355  153.069346  153.069346  160.232653 
2.330950    26.754892   26.754892   52.927905  153.016448  153.016448  160.535802 
2.335324    27.416922   27.416922   54.205156  152.962093  152.962093  160.844950 
2.339698    28.078436   28.078436   55.479028  152.906271  152.906271  161.159985 
2.344072    28.739422   28.739422   56.749443  152.848975  152.848975  161.480791 
2.348446    29.399865   29.399865   58.016320  152.790195  152.790195  161.807253 
2.352819    30.059752   30.059752   59.279581  152.729924  152.729924  162.139254 
2.357193    30.719070   30.719070   60.539147  152.668151  152.668151  162.476674 
2.361567    31.377805   31.377805   61.794940  152.604867  152.604867  162.819395 
2.365941    32.035942   32.035942   63.046882  152.540065  152.540065  163.167297 
2.370315    32.693468   32.693468   64.294894  152.473733  152.473733  163.520256 
2.374689    33.350368   33.350368   65.538899  152.405863  152.405863  163.878152 
2.379063    34.006630   34.006630   66.778819  152.336446  152.336446  164.240860 
2.383437    34.662237   34.662237   68.014578  152.265470  152.265470  164.608257 
2.387810    35.317178   35.317178   69.246097  152.192928  152.192928  164.980218 
2.392184    35.971436   35.971436   70.473300  152.118808  152.118808  165.356617 
2.396558    36.624997   36.624997   71.696111  152.043101  152.043101  165.737329 
2.400932    37.277848   37.277848   72.914454  151.965797  151.965797  166.122227 
2.405306    37.929973   37.929973   74.128253  151.886886  151.886886  166.511185 
2.409680    38.581358   38.581358   75.337431  151.806357  151.806357  166.904074 
2.414054    39.231988   39.231988   76.541914  151.724200  151.724200  167.300768 
2.418427    39.881848   39.881848   77.741627  151.640405  151.640405  167.701139 
2.422801    40.530924   40.530924   78.936494  151.554961  151.554961  168.105058 
2.427175    41.179199   41.179199   80.126442  151.467858  151.467858  168.512398 
2.431549    41.826660   41.826660   81.311395  151.379086  151.379086  168.923029 
2.435923    42.473291   42.473291   82.491281  151.288633  151.288633  169.336825 
2.440297    43.119077   43.119077   83.666026  151.196490  151.196490  169.753656 
2.444671    43.764001   43.764001   84.835555  151.102645  151.102645  170.173394 
2.449045    44.408050   44.408050   85.999797  151.007089  151.007089  170.595912 
2.453418    45.051206   45.051206   87.158679  150.909810  150.909810  171.021080 
2.457792    45.693455   45.693455   88.312128  150.810797  150.810797  171.448772 
2.462166    46.334781   46.334781   89.460073  150.710040  150.710040  171.878860 
2.466540    46.975167   46.975167   90.602441  150.607529  150.607529  172.311217 
2.470914    47.614598   47.614598   91.739162  150.503252  150.503252  172.745716 
2.475288    48.253057   48.253057   92.870165  150.397200  150.397200  173.182231 
2.479662    48.890529   48.890529   93.995378  150.289360  150.289360  173.620634 
2.484035    49.526996   49.526996   95.114732  150.179724  150.179724  174.060802 
2.488409    50.162443   50.162443   96.228156  150.068279  150.068279  174.502609 
2.492783    50.796853   50.796853   97.335581  149.955017  149.955017  174.945929 
2.497157    51.430209   51.430209   98.436939  149.839925  149.839925  175.390640 
2.501531    52.062495   52.062495   99.532159  149.722994  149.722994  175.836617 
2.505905    52.693692   52.693692  100.621173  149.604214  149.604214  176.283738 
2.510279    53.323786   53.323786  101.703914  149.483574  149.483574  176.731882 
2.514653    53.952757   53.952757  102.780314  149.361064  149.361064  177.180925 
2.519026    54.580589   54.580589  103.850304  149.236673  149.236673  177.630748 
2.523400    55.207264   55.207264  104.913819  149.110393  149.110393  178.081231 
2.527774    55.832765   55.832765  105.970791  148.982212  148.982212  178.532254 
2.532148    56.457073   56.457073  107.021154  148.852121  148.852121  178.983699 
2.536522    57.080172   57.080172  108.064843  148.720111  148.720111  179.435449 
2.540896    57.702043   57.702043  109.101792  148.586172  148.586172  179.887386 
2.545270    58.322668   58.322668  110.131936  148.450295  148.450295  180.339395 
2.549643    58.942028   58.942028  111.155209  148.312469  148.312469  180.791360 
2.554017    59.560105   59.560105  112.171549  148.172687  148.172687  181.243168 
2.558391    60.176880   60.176880  113.180891  148.030939  148.030939  181.694705 
2.562765    60.792335   60.792335  114.183171  147.887217  147.887217  182.145859 
2.567139    61.406450   61.406450  115.178327  147.741511  147.741511  182.596518 
2.571513    62.019206   62.019206  116.166296  147.593814  147.593814  183.046573 
2.575887    62.630585   62.630585  117.147015  147.444118  147.444118  183.495913 
2.580260    63.240565   63.240565  118.120423  147.292414  147.292414  183.944431 
2.584634    63.849129   63.849129  119.086459  147.138694  147.138694  184.392019 
2.589008    64.456255   64.456255  120.045061  146.982953  146.982953  184.838570 

2.589008    64.456255   64.456255  120.045061  146.982953  146.982953  184.838570 
2.593382    65.061923   65.061923  120.996169  146.825181  146.825181  185.283979 
2.597756    65.666114   65.666114  121.939723  146.665373  146.665373  185.728143 
2.602130    66.268806   66.268806  122.875663  146.503521  146.503521  186.170957 
2.606504    66.869979   66.869979  123.803930  146.339620  146.339620  186.612320 
2.610878    67.469611   67.469611  124.724466  146.173662  146.173662  187.052130 
2.615251    68.067682   68.067682  125.637211  146.005644  146.005644  187.490288 
2.619625    68.664170   68.664170  126.542108  145.835559  145.835559  187.926694 
2.623999    69.259053   69.259053  127.439099  145.663402  145.663402  188.361251 
2.628373    69.852308   69.852308  128.328128  145.489168  145.489168  188.793862 
2.632747    70.443914   70.443914  129.209138  145.312854  145.312854  189.224431 
2.637121    71.033848   71.033848  130.082073  145.134456  145.134456  189.652864 
2.641495    71.622086   71.622086  130.946876  144.953970  144.953970  190.079068 
2.645868    72.208606   72.208606  131.803494  144.771393  144.771393  190.502950 
2.650242    72.793383   72.793383  132.651871  144.586723  144.586723  190.924419 
2.654616    73.376394   73.376394  133.491953  144.399958  144.399958  191.343386 
2.658990    73.957614   73.957614  134.323687  144.211096  144.211096  191.759761 
2.663364    74.537018   74.537018  135.147018  144.020137  144.020137  192.173457 
2.667738    75.114581   75.114581  135.961895  143.827080  143.827080  192.584387 
2.672112    75.690277   75.690277  136.768264  143.631926  143.631926  192.992467 
2.676486    76.264079   76.264079  137.566074  143.434675  143.434675  193.397611 
2.680859    76.835962   76.835962  138.355274  143.235329  143.235329  193.799736 
2.685233    77.405898   77.405898  139.135813  143.033891  143.033891  194.198762 
2.689607    77.973858   77.973858  139.907640  142.830363  142.830363  194.594607 
2.693981    78.539816   78.539816  140.670705  142.624748  142.624748  194.987192 
2.698355    79.103741   79.103741  141.424959  142.417053  142.417053  195.376437 
2.702729    79.665603   79.665603  142.170354  142.207281  142.207281  195.762267 
2.707103    80.225374   80.225374  141.995439  141.995439  142.906840  196.144604 
2.711476    80.783021   80.783021  141.781535  141.781535  143.634370  196.523375 
2.715850    81.338512   81.338512  141.565577  141.565577  144.352897  196.898504 
2.720224    81.891815   81.891815  141.347574  141.347574  145.062373  197.269921 
2.724598    82.442896   82.442896  141.127536  141.127536  145.762752  197.637552 
2.728972    82.991720   82.991720  140.905475  140.905475  146.453989  198.001328 
2.733346    83.538252   83.538252  140.681404  140.681404  147.136038  198.361180 
2.737720    84.082456   84.082456  140.455336  140.455336  147.808855  198.717040 
2.742094    84.624292   84.624292  140.227288  140.227288  148.472394  199.068841 
2.746467    85.163723   85.163723  139.997276  139.997276  149.126613  199.416518 
2.750841    85.700707   85.700707  139.765319  139.765319  149.771468  199.760005 
2.755215    86.235204   86.235204  139.531437  139.531437  150.406917  200.099240 
2.759589    86.767168   86.767168  139.295651  139.295651  151.032918  200.434160 
2.763963    87.296557   87.296557  139.057987  139.057987  151.649428  200.764704 
2.768337    87.823322   87.823322  138.818468  138.818468  152.256408  201.090813 
2.772711    88.347416   88.347416  138.577124  138.577124  152.853816  201.412427 
2.777084    88.868787   88.868787  138.333985  138.333985  153.441613  201.729489 
2.781458    89.387383   89.387383  138.089083  138.089083  154.019759  202.041942 
2.785832    89.903150   89.903150  137.842453  137.842453  154.588216  202.349731 
2.790206    90.416028   90.416028  137.594134  137.594134  155.146946  202.652802 
2.794580    90.925958   90.925958  137.344167  137.344167  155.695911  202.951101 
2.798954    91.432877   91.432877  137.092595  137.092595  156.235074  203.244577 
2.803328    91.936718   91.936718  136.839467  136.839467  156.764399  203.533178 
2.807702    92.437412   92.437412  136.584834  136.584834  157.283850  203.816854 
2.812075    92.934885   92.934885  136.328752  136.328752  157.793391  204.095558 
2.816449    93.429059   93.429059  136.071279  136.071279  158.292989  204.369241 
2.820823    93.919853   93.919853  135.812481  135.812481  158.782608  204.637857 
2.825197    94.407181   94.407181  135.552426  135.552426  159.262217  204.901359 
2.829571    94.890950   94.890950  135.291190  135.291190  159.731781  205.159705 
2.833945    95.371063   95.371063  135.028852  135.028852  160.191269  205.412851 
2.838319    95.847418   95.847418  134.765501  134.765501  160.640650  205.660753 
2.842692    96.319905   96.319905  134.501229  134.501229  161.079891  205.903372 
2.847066    96.788407   96.788407  134.236138  134.236138  161.508964  206.140667 
2.851440    97.252799   97.252799  133.970337  133.970337  161.927839  206.372600 
2.855814    97.712949   97.712949  133.703944  133.703944  162.336486  206.599131 
2.860188    98.168715   98.168715  133.437086  133.437086  162.734877  206.820225 
2.864562    98.619944   98.619944  133.169902  133.169902  163.122985  207.035844 
2.868936    99.066474   99.066474  132.902540  132.902540  163.500782  207.245956 
2.873309    99.508129   99.508129  132.635162  132.635162  163.868243  207.450525 
2.877683    99.944722   99.944722  132.367943  132.367943  164.225341  207.649519 
2.882057   100.376052  100.376052  132.101071  132.101071  164.572051  207.842906 
2.886431   100.801900  100.801900  131.834751  131.834751  164.908350  208.030655 
2.890805   101.222032  101.222032  131.569205  131.569205  165.234214  208.212737 
2.895179   101.636196  101.636196  131.304674  131.304674  165.549619  208.389123 
2.899553   102.044121  102.044121  131.041419  131.041419  165.854543  208.559786 
2.903927   102.445512  102.445512  130.779722  130.779722  166.148966  208.724697 
2.908300   102.840052  102.840052  130.519889  130.519889  166.432865  208.883832 
2.912674   103.227399  103.227399  130.262254  130.262254  166.706222  209.037167 
2.917048   103.607182  103.607182  130.007175  130.007175  166.969016  209.184676 
2.921422   103.979004  103.979004  129.755042  129.755042  167.221228  209.326338 
2.925796   104.342434  104.342434  129.506276  129.506276  167.462842  209.462130 
2.930170   104.697008  104.697008  129.261332  129.261332  167.693839  209.592032 
2.934544   105.042227  105.042227  129.020701  129.020701  167.914204  209.716024 
2.938917   105.377554  105.377554  128.784910  128.784910  168.123920  209.834086 
2.943291   105.702417  105.702417  128.554527  128.554527  168.322972  209.946202 
2.947665   106.016199  106.016199  128.330158  128.330158  168.511346  210.052353 
2.952039   106.318248  106.318248  128.112451  128.112451  168.689029  210.152524 
2.956413   106.607869  106.607869  127.902092  127.902092  168.856007  210.246700 
2.960787   106.884330  106.884330  127.699808  127.699808  169.012269  210.334865 
2.965161   107.146865  107.146865  127.506360  127.506360  169.157804  210.417008 
2.969535   107.394674  107.394674  127.322543  127.322543  169.292601  210.493116 
2.973908   107.626932  107.626932  127.149174  127.149174  169.416649  210.563177 
2.978282   107.842799  107.842799  126.987092  126.987092  169.529941  210.627181 
2.982656   108.041424  108.041424  126.837141  126.837141  169.632469  210.685118 
2.987030   108.221963  108.221963  126.700163  126.700163  169.724223  210.736979 
2.991404   108.383592  108.383592  126.576979  126.576979  169.805199  210.782757 
2.995778   108.525520  108.525520  126.468375  126.468375  169.875390  210.822446 
3.000152   108.647011  108.647011  126.375085  126.375085  169.934791  210.856038 
3.004525   108.747402  108.747402  126.297772  126.297772  169.983398  210.883530 
3.008899   108.826117  108.826117  126.237008  126.237008  170.021206  210.904916 
3.013273   108.882690  108.882690  126.193258  126.193258  170.048215  210.920195 
3.017647   108.916776  108.916776  126.166866  126.166866  170.064420  210.929363 
3.022021   108.928161  108.928161  126.158046  126.158046  170.069822  210.932419 

